Frequency (Hz)	Level (dB)
86,132812	-57,809078
172,265625	-62,986927
258,398438	-64,727951
344,531250	-62,638184
430,664062	-61,733795
516,796875	-64,130333
602,929688	-69,028908
689,062500	-75,001068
775,195312	-79,902481
861,328125	-77,762817
947,460938	-74,965881
1033,593750	-77,399986
1119,726562	-81,030930
1205,859375	-79,909416
1291,992188	-82,116837
1378,125000	-84,493286
1464,257812	-86,355537
1550,390625	-89,246773
1636,523438	-91,894035
1722,656250	-92,746048
1808,789062	-92,571579
1894,921875	-90,790726
1981,054688	-89,384689
2067,187500	-88,635384
2153,320312	-87,896469
2239,453125	-90,879936
2325,585938	-94,103394
2411,718750	-96,051323
2497,851562	-96,551674
2583,984375	-95,639687
2670,117188	-94,521553
2756,250000	-93,064407
2842,382812	-93,365852
2928,515625	-93,926888
3014,648438	-94,002083
3100,781250	-95,459961
3186,914062	-97,294136
3273,046875	-98,738304
3359,179688	-99,300446
3445,312500	-99,471970
3531,445312	-99,124374
3617,578125	-98,879318
3703,710938	-97,201920
3789,843750	-95,932419
3875,976562	-96,384872
3962,109375	-97,165779
4048,242188	-98,082436
4134,375000	-99,119301
4220,507812	-100,068741
4306,640625	-100,342979
4392,773438	-99,910065
4478,906250	-99,936485
4565,039062	-99,984726
4651,171875	-100,362938
4737,304688	-100,482506
4823,437500	-100,406631
4909,570312	-100,354553
4995,703125	-100,448341
5081,835938	-101,232964
5167,968750	-100,945694
5254,101562	-101,255226
5340,234375	-101,748932
5426,367188	-101,692398
5512,500000	-101,447548
5598,632812	-101,610718
5684,765625	-101,425392
5770,898438	-101,370880
5857,031250	-101,497398
5943,164062	-101,856590
6029,296875	-101,910141
6115,429688	-101,386986
6201,562500	-101,300446
6287,695312	-101,446053
6373,828125	-101,216919
6459,960938	-100,873116
6546,093750	-100,523537
6632,226562	-100,481773
6718,359375	-101,121567
6804,492188	-101,023750
6890,625000	-101,949181
6976,757812	-101,775940
7062,890625	-101,857262
7149,023438	-101,947731
7235,156250	-101,974213
7321,289062	-102,053391
7407,421875	-102,123566
7493,554688	-102,305809
7579,687500	-102,437988
7665,820312	-102,385124
7751,953125	-102,556755
7838,085938	-102,557220
7924,218750	-102,612122
8010,351562	-102,341553
8096,484375	-102,520149
8182,617188	-102,342934
8268,750000	-102,389320
8354,882812	-102,051003
8441,015625	-101,866928
8527,148438	-102,232559
8613,281250	-101,906876
8699,414062	-101,777328
8785,546875	-101,534973
8871,679688	-102,447807
8957,812500	-102,165146
9043,945312	-102,464951
9130,078125	-102,583443
9216,210938	-102,543854
9302,343750	-103,257362
9388,476562	-103,312607
9474,609375	-102,944595
9560,742188	-103,005966
9646,875000	-103,318298
9733,007812	-103,214439
9819,140625	-103,639458
9905,273438	-103,519318
9991,406250	-103,306831
10077,539062	-103,112198
10163,671875	-103,231544
10249,804688	-103,337898
10335,937500	-103,292099
10422,070312	-102,981400
10508,203125	-103,042427
10594,335938	-103,014061
10680,468750	-102,817291
10766,601562	-103,180008
10852,734375	-103,053513
10938,867188	-103,289978
11025,000000	-103,440292
11111,132812	-103,320251
11197,265625	-103,493721
11283,398438	-103,429962
11369,531250	-103,104286
11455,664062	-103,187248
11541,796875	-103,361290
11627,929688	-103,539909
11714,062500	-103,066795
11800,195312	-102,974495
11886,328125	-102,922928
11972,460938	-103,216942
12058,593750	-103,107727
12144,726562	-103,201172
12230,859375	-103,061172
12316,992188	-103,213356
12403,125000	-103,061440
12489,257812	-103,037392
12575,390625	-103,077995
12661,523438	-102,623802
12747,656250	-102,523254
12833,789062	-103,120331
12919,921875	-102,874245
13006,054688	-102,648102
13092,187500	-102,928627
13178,320312	-102,899590
13264,453125	-102,285431
13350,585938	-102,353218
13436,718750	-102,480736
13522,851562	-102,355141
13608,984375	-102,074310
13695,117188	-101,986656
13781,250000	-102,069550
13867,382812	-101,857506
13953,515625	-101,317879
14039,648438	-101,746567
14125,781250	-101,764503
14211,914062	-101,825226
14298,046875	-101,680161
14384,179688	-101,584328
14470,312500	-101,621216
14556,445312	-101,255775
14642,578125	-101,254333
14728,710938	-101,412827
14814,843750	-101,218918
14900,976562	-101,278358
14987,109375	-101,286018
15073,242188	-101,155113
15159,375000	-100,667267
15245,507812	-100,928383
15331,640625	-100,761047
15417,773438	-100,692825
15503,906250	-100,557289
15590,039062	-100,596756
15676,171875	-100,484360
15762,304688	-100,382011
15848,437500	-100,089523
15934,570312	-100,195168
16020,703125	-100,390022
16106,835938	-100,189369
16192,968750	-99,986969
16279,101562	-100,010147
16365,234375	-100,207741
16451,367188	-100,365784
16537,500000	-100,263741
16623,632812	-99,925842
16709,765625	-99,669502
16795,898438	-100,026291
16882,031250	-100,441132
16968,164062	-99,953674
17054,296875	-100,008804
17140,429688	-99,963287
17226,562500	-99,774414
17312,695312	-100,015633
17398,828125	-99,653130
17484,960938	-99,584427
17571,093750	-99,902016
17657,226562	-100,331047
17743,359375	-100,305595
17829,492188	-100,179794
17915,625000	-100,027504
18001,757812	-99,684059
18087,890625	-99,623901
18174,023438	-100,121964
18260,156250	-99,988075
18346,289062	-99,750771
18432,421875	-100,369766
18518,554688	-100,088455
18604,687500	-100,371925
18690,820312	-100,757050
18776,953125	-100,832008
18863,085938	-101,008575
18949,218750	-101,040039
19035,351562	-100,709999
19121,484375	-100,967400
19207,617188	-101,201424
19293,750000	-101,220421
19379,882812	-101,344261
19466,015625	-101,478760
19552,148438	-101,914268
19638,281250	-101,715202
19724,414062	-102,196663
19810,546875	-102,283875
19896,679688	-102,104141
19982,812500	-102,309792
20068,945312	-102,375893
20155,078125	-102,267303
20241,210938	-102,752739
20327,343750	-102,718597
20413,476562	-102,825035
20499,609375	-103,156181
20585,742188	-103,565018
20671,875000	-103,614471
20758,007812	-103,291023
20844,140625	-103,308044
20930,273438	-103,614883
21016,406250	-103,606773
21102,539062	-103,405418
21188,671875	-103,636986
21274,804688	-103,973091
21360,937500	-104,244392
21447,070312	-104,101128
21533,203125	-103,643555
21619,335938	-103,705444
21705,468750	-104,387917
21791,601562	-104,502747
21877,734375	-104,260529
21963,867188	-104,127625
